HNO4      NASA2006   at temp. T1/T2   297.0  297.0
 Bin  Wavelength (nm)   Solar Flux    X-sect(T1) X-sect(T2)
  1   177.49 - 178.30   1.023E+11     0.000E+00  0.000E+00
  2   178.30 - 179.26   1.443E+11     0.000E+00  0.000E+00
  3   179.26 - 180.38   1.624E+11     0.000E+00  0.000E+00
  4   180.38 - 181.65   2.136E+11     0.000E+00  0.000E+00
  5   181.65 - 183.08   2.998E+11     0.000E+00  0.000E+00
  6   183.08 - 184.65   2.927E+11     0.000E+00  0.000E+00
  7   184.65 - 186.37   3.082E+11     0.000E+00  0.000E+00
  8   186.37 - 188.24   4.765E+11     0.000E+00  0.000E+00
  9   188.24 - 190.25   6.149E+11     5.324E-19  5.324E-19
 10   190.25 - 192.42   7.709E+11     7.955E-18  7.955E-18
 11   192.42 - 194.73   9.205E+11     8.679E-18  8.679E-18
 12   194.73 - 197.20   1.345E+12     7.642E-18  7.642E-18
 13   197.20 - 198.50   7.772E+11     6.715E-18  6.715E-18
 14   198.50 - 200.00   9.630E+11     6.017E-18  6.017E-18
 15   200.00 - 202.50   1.930E+12     5.137E-18  5.137E-18
 16   202.50 - 204.00   1.291E+12     4.342E-18  4.342E-18
 17   204.00 - 206.50   2.593E+12     3.633E-18  3.633E-18
 18   206.50 - 209.50   4.391E+12     2.864E-18  2.864E-18
 19   209.50 - 212.50   8.905E+12     2.231E-18  2.231E-18
 20   212.50 - 215.50   1.081E+13     1.762E-18  1.762E-18
 21   215.50 - 218.50   1.153E+13     1.433E-18  1.433E-18
 22   218.50 - 221.50   1.451E+13     1.203E-18  1.203E-18
 23   221.50 - 225.00   2.131E+13     1.017E-18  1.017E-18
 24   225.00 - 229.00   2.063E+13     8.791E-19  8.791E-19
 25   229.00 - 233.00   2.298E+13     7.715E-19  7.715E-19
 26   233.00 - 237.50   2.396E+13     6.766E-19  6.766E-19
 27   237.50 - 242.50   2.822E+13     5.788E-19  5.788E-19
 28   242.50 - 248.00   3.842E+13     4.905E-19  4.905E-19
 29   248.00 - 254.00   3.790E+13     4.016E-19  4.016E-19
 30   254.00 - 260.00   7.566E+13     3.206E-19  3.206E-19
 31   260.00 - 265.50   1.072E+14     2.487E-19  2.487E-19
 32   265.50 - 270.50   1.715E+14     2.001E-19  2.001E-19
 33   270.50 - 275.50   1.277E+14     1.556E-19  1.556E-19
 34   275.50 - 280.00   1.204E+14     1.141E-19  1.141E-19
 35   280.00 - 283.50   1.214E+14     8.055E-20  8.055E-20
 36   283.50 - 286.50   1.035E+14     6.478E-20  6.478E-20
 37   286.50 - 289.00   1.229E+14     5.076E-20  5.076E-20
 38   289.00 - 291.00   1.601E+14     4.123E-20  4.123E-20
 39   291.00 - 293.00   1.540E+14     3.419E-20  3.419E-20
 40   293.00 - 295.00   1.526E+14     2.855E-20  2.855E-20
 41   295.00 - 296.75   1.481E+14     2.364E-20  2.364E-20
 42   296.75 - 298.25   1.190E+14     2.009E-20  2.009E-20
 43   298.25 - 299.55   8.872E+13     1.747E-20  1.747E-20
 44   299.55 - 300.50   6.089E+13     1.557E-20  1.557E-20
 45   300.50 - 301.50   7.177E+13     1.399E-20  1.399E-20
 46   301.50 - 302.50   6.438E+13     1.286E-20  1.286E-20
 47   302.50 - 303.50   9.648E+13     1.166E-20  1.166E-20
 48   303.50 - 304.50   8.564E+13     1.052E-20  1.052E-20
 49   304.50 - 305.50   9.661E+13     9.500E-21  9.500E-21
 50   305.50 - 306.50   8.102E+13     8.539E-21  8.539E-21
 51   306.50 - 307.45   8.878E+13     7.778E-21  7.778E-21
 52   307.45 - 308.50   1.037E+14     7.038E-21  7.038E-21
 53   308.50 - 309.45   8.216E+13     6.332E-21  6.332E-21
 54   309.45 - 310.50   8.354E+13     5.563E-21  5.563E-21
 55   310.50 - 311.50   1.308E+14     5.078E-21  5.078E-21
 56   311.50 - 312.45   1.019E+14     4.666E-21  4.666E-21
 57   312.45 - 313.50   1.135E+14     4.240E-21  4.240E-21
 58   313.50 - 314.50   1.144E+14     3.824E-21  3.824E-21
 59   314.50 - 315.70   1.297E+14     3.426E-21  3.426E-21
 60   315.70 - 317.20   1.504E+14     2.999E-21  2.999E-21
 61   317.20 - 318.70   1.733E+14     2.672E-21  2.672E-21
 62   318.70 - 320.30   1.893E+14     2.280E-21  2.280E-21
 63   320.30 - 322.50   2.728E+14     1.950E-21  1.950E-21
 64   322.50 - 326.95   6.081E+14     1.439E-21  1.439E-21
 65   326.95 - 334.95   1.296E+15     8.793E-22  8.793E-22
 66   334.95 - 345.00   1.609E+15     3.705E-22  3.705E-22
 67   345.00 - 355.05   1.766E+15     1.168E-22  1.168E-22
 68   355.05 - 365.03   1.744E+15     2.891E-29  2.891E-29
 69   365.03 - 375.00   2.097E+15     0.000E+00  0.000E+00
 70   375.00 - 389.95   3.038E+15     0.000E+00  0.000E+00
 71   389.95 - 412.45   6.791E+15     0.000E+00  0.000E+00
 72   412.45 - 437.55   9.281E+15     0.000E+00  0.000E+00
 73   437.55 - 485.10   2.224E+16     0.000E+00  0.000E+00
 74   485.10 - 560.10   3.676E+16     0.000E+00  0.000E+00
 75   560.10 - 635.10   3.960E+16     0.000E+00  0.000E+00
 76   635.10 - 760.20   6.302E+16     0.000E+00  0.000E+00
 77   760.20 - 850.00   4.013E+16     0.000E+00  0.000E+00

SOLAR FLUX
 1.023E+11 1.443E+11 1.624E+11 2.136E+11 2.998E+11 2.927E+11 3.082E+11 4.765E+11
 6.149E+11 7.709E+11 9.205E+11 1.345E+12 7.772E+11 9.630E+11 1.930E+12 1.291E+12
 2.593E+12 4.391E+12 8.905E+12 1.081E+13 1.153E+13 1.451E+13 2.131E+13 2.063E+13
 2.298E+13 2.396E+13 2.822E+13 3.842E+13 3.790E+13 7.566E+13 1.072E+14 1.715E+14
 1.277E+14 1.204E+14 1.214E+14 1.035E+14 1.229E+14 1.601E+14 1.540E+14 1.526E+14
 1.481E+14 1.190E+14 8.872E+13 6.089E+13 7.177E+13 6.438E+13 9.648E+13 8.564E+13
 9.661E+13 8.102E+13 8.878E+13 1.037E+14 8.216E+13 8.354E+13 1.308E+14 1.019E+14
 1.135E+14 1.144E+14 1.297E+14 1.504E+14 1.733E+14 1.893E+14 2.728E+14 6.081E+14
 1.296E+15 1.609E+15 1.766E+15 1.744E+15 2.097E+15 3.038E+15 6.791E+15 9.281E+15
 2.224E+16 3.676E+16 3.960E+16 6.302E+16 4.013E+16
HNO4      NASA2006   297.
 0.000E+00 0.000E+00 0.000E+00 0.000E+00 0.000E+00 0.000E+00 0.000E+00 0.000E+00
 5.324E-19 7.955E-18 8.679E-18 7.642E-18 6.715E-18 6.017E-18 5.137E-18 4.342E-18
 3.633E-18 2.864E-18 2.231E-18 1.762E-18 1.433E-18 1.203E-18 1.017E-18 8.791E-19
 7.715E-19 6.766E-19 5.788E-19 4.905E-19 4.016E-19 3.206E-19 2.487E-19 2.001E-19
 1.556E-19 1.141E-19 8.055E-20 6.478E-20 5.076E-20 4.123E-20 3.419E-20 2.855E-20
 2.364E-20 2.009E-20 1.747E-20 1.557E-20 1.399E-20 1.286E-20 1.166E-20 1.052E-20
 9.500E-21 8.539E-21 7.778E-21 7.038E-21 6.332E-21 5.563E-21 5.078E-21 4.666E-21
 4.240E-21 3.824E-21 3.426E-21 2.999E-21 2.672E-21 2.280E-21 1.950E-21 1.439E-21
 8.793E-22 3.705E-22 1.168E-22 2.891E-29 0.000E+00 0.000E+00 0.000E+00 0.000E+00
 0.000E+00 0.000E+00 0.000E+00 0.000E+00 0.000E+00
HNO4      NASA2006   297.
 0.000E+00 0.000E+00 0.000E+00 0.000E+00 0.000E+00 0.000E+00 0.000E+00 0.000E+00
 5.324E-19 7.955E-18 8.679E-18 7.642E-18 6.715E-18 6.017E-18 5.137E-18 4.342E-18
 3.633E-18 2.864E-18 2.231E-18 1.762E-18 1.433E-18 1.203E-18 1.017E-18 8.791E-19
 7.715E-19 6.766E-19 5.788E-19 4.905E-19 4.016E-19 3.206E-19 2.487E-19 2.001E-19
 1.556E-19 1.141E-19 8.055E-20 6.478E-20 5.076E-20 4.123E-20 3.419E-20 2.855E-20
 2.364E-20 2.009E-20 1.747E-20 1.557E-20 1.399E-20 1.286E-20 1.166E-20 1.052E-20
 9.500E-21 8.539E-21 7.778E-21 7.038E-21 6.332E-21 5.563E-21 5.078E-21 4.666E-21
 4.240E-21 3.824E-21 3.426E-21 2.999E-21 2.672E-21 2.280E-21 1.950E-21 1.439E-21
 8.793E-22 3.705E-22 1.168E-22 2.891E-29 0.000E+00 0.000E+00 0.000E+00 0.000E+00
 0.000E+00 0.000E+00 0.000E+00 0.000E+00 0.000E+00
